Frequency(Hz),Magnitude(dB)
0.00,-0.00
0.50,-0.00
1.00,-0.00
1.50,-0.00
2.00,-0.00
2.50,-0.00
3.00,-0.00
3.50,-0.00
4.00,-0.00
4.50,-0.00
5.00,-0.00
5.50,-0.00
6.00,-0.00
6.50,-0.00
7.00,-0.00
7.50,-0.00
8.00,-0.00
8.50,-0.00
9.00,-0.00
9.50,-0.00
10.00,-0.00
10.50,-0.00
11.00,-0.00
11.50,-0.00
12.00,-0.00
12.50,-0.00
13.00,-0.00
13.50,-0.00
14.00,-0.00
14.50,-0.00
15.00,-0.00
15.50,-0.00
16.00,-0.00
16.50,-0.00
17.00,-0.00
17.50,-0.00
18.00,-0.00
18.50,-0.00
19.00,-0.00
19.50,-0.00
20.00,-0.00
20.50,-0.00
21.00,-0.00
21.50,-0.00
22.00,-0.00
22.50,-0.00
23.00,-0.00
23.50,-0.00
24.00,-0.00
24.50,-0.00
25.00,-0.00
25.50,-0.00
26.00,-0.00
26.50,-0.00
27.00,-0.00
27.50,-0.00
28.00,-0.00
28.50,-0.00
29.00,-0.00
29.50,-0.00
30.00,-0.00
30.50,-0.00
31.00,-0.00
31.50,-0.00
32.00,-0.00
32.50,-0.00
33.00,-0.00
33.50,-0.00
34.00,-0.00
34.50,-0.00
35.00,-0.00
35.50,-0.00
36.00,-0.00
36.50,-0.00
37.00,-0.00
37.50,-0.00
38.00,-0.00
38.50,-0.00
39.00,-0.00
39.50,-0.00
40.01,-0.00
40.51,-0.00
41.01,-0.00
41.51,-0.00
42.01,-0.00
42.51,-0.00
43.01,-0.00
43.51,-0.00
44.01,-0.00
44.51,-0.00
45.01,-0.00
45.51,-0.00
46.01,-0.00
46.51,-0.00
47.01,-0.00
47.51,-0.00
48.01,-0.00
48.51,-0.00
49.01,-0.00
49.51,-0.00
50.01,-0.00
50.51,-0.00
51.01,-0.00
51.51,-0.00
52.01,-0.00
52.51,-0.00
53.01,-0.00
53.51,-0.00
54.01,-0.00
54.51,-0.00
55.01,-0.00
55.51,-0.00
56.01,-0.00
56.51,-0.00
57.01,-0.00
57.51,-0.00
58.01,-0.00
58.51,-0.00
59.01,-0.00
59.51,-0.00
60.01,-0.00
60.51,-0.00
61.01,-0.01
61.51,-0.01
62.01,-0.01
62.51,-0.01
63.01,-0.01
63.51,-0.01
64.01,-0.01
64.51,-0.01
65.01,-0.01
65.51,-0.01
66.01,-0.01
66.51,-0.01
67.01,-0.01
67.51,-0.01
68.01,-0.01
68.51,-0.01
69.01,-0.01
69.51,-0.01
70.01,-0.01
70.51,-0.01
71.01,-0.01
71.51,-0.01
72.01,-0.01
72.51,-0.01
73.01,-0.01
73.51,-0.01
74.01,-0.01
74.51,-0.01
75.01,-0.01
75.51,-0.01
76.01,-0.01
76.51,-0.01
77.01,-0.01
77.51,-0.01
78.01,-0.01
78.51,-0.01
79.01,-0.01
79.51,-0.01
80.01,-0.01
80.51,-0.01
81.01,-0.01
81.51,-0.01
82.01,-0.01
82.51,-0.01
83.01,-0.01
83.51,-0.01
84.01,-0.01
84.51,-0.01
85.01,-0.01
85.51,-0.01
86.01,-0.01
86.51,-0.01
87.01,-0.01
87.51,-0.01
88.01,-0.01
88.51,-0.01
89.01,-0.01
89.51,-0.01
90.01,-0.01
90.51,-0.01
91.01,-0.01
91.51,-0.01
92.01,-0.01
92.51,-0.01
93.01,-0.01
93.51,-0.01
94.01,-0.01
94.51,-0.01
95.01,-0.01
95.51,-0.01
96.01,-0.01
96.51,-0.01
97.01,-0.01
97.51,-0.01
98.01,-0.01
98.51,-0.01
99.01,-0.01
99.51,-0.01
100.01,-0.01
100.51,-0.01
101.01,-0.01
101.51,-0.01
102.01,-0.01
102.51,-0.01
103.01,-0.01
103.51,-0.01
104.01,-0.01
104.51,-0.01
105.01,-0.01
105.51,-0.02
106.01,-0.02
106.51,-0.02
107.01,-0.02
107.51,-0.02
108.01,-0.02
108.51,-0.02
109.01,-0.02
109.51,-0.02
110.01,-0.02
110.51,-0.02
111.01,-0.02
111.51,-0.02
112.01,-0.02
112.51,-0.02
113.01,-0.02
113.51,-0.02
114.01,-0.02
114.51,-0.02
115.01,-0.02
115.51,-0.02
116.01,-0.02
116.51,-0.02
117.01,-0.02
117.51,-0.02
118.01,-0.02
118.51,-0.02
119.01,-0.02
119.51,-0.02
120.02,-0.02
120.52,-0.02
121.02,-0.02
121.52,-0.02
122.02,-0.02
122.52,-0.02
123.02,-0.02
123.52,-0.02
124.02,-0.02
124.52,-0.02
125.02,-0.02
125.52,-0.02
126.02,-0.02
126.52,-0.02
127.02,-0.02
127.52,-0.02
128.02,-0.02
128.52,-0.02
129.02,-0.02
129.52,-0.02
130.02,-0.02
130.52,-0.02
131.02,-0.02
131.52,-0.02
132.02,-0.02
132.52,-0.02
133.02,-0.02
133.52,-0.02
134.02,-0.02
134.52,-0.02
135.02,-0.02
135.52,-0.03
136.02,-0.03
136.52,-0.03
137.02,-0.03
137.52,-0.03
138.02,-0.03
138.52,-0.03
139.02,-0.03
139.52,-0.03
140.02,-0.03
140.52,-0.03
141.02,-0.03
141.52,-0.03
142.02,-0.03
142.52,-0.03
143.02,-0.03
143.52,-0.03
144.02,-0.03
144.52,-0.03
145.02,-0.03
145.52,-0.03
146.02,-0.03
146.52,-0.03
147.02,-0.03
147.52,-0.03
148.02,-0.03
148.52,-0.03
149.02,-0.03
149.52,-0.03
150.02,-0.03
150.52,-0.03
151.02,-0.03
151.52,-0.03
152.02,-0.03
152.52,-0.03
153.02,-0.03
153.52,-0.03
154.02,-0.03
154.52,-0.03
155.02,-0.03
155.52,-0.03
156.02,-0.03
156.52,-0.03
157.02,-0.03
157.52,-0.03
158.02,-0.03
158.52,-0.03
159.02,-0.03
159.52,-0.04
160.02,-0.04
160.52,-0.04
161.02,-0.04
161.52,-0.04
162.02,-0.04
162.52,-0.04
163.02,-0.04
163.52,-0.04
164.02,-0.04
164.52,-0.04
165.02,-0.04
165.52,-0.04
166.02,-0.04
166.52,-0.04
167.02,-0.04
167.52,-0.04
168.02,-0.04
168.52,-0.04
169.02,-0.04
169.52,-0.04
170.02,-0.04
170.52,-0.04
171.02,-0.04
171.52,-0.04
172.02,-0.04
172.52,-0.04
173.02,-0.04
173.52,-0.04
174.02,-0.04
174.52,-0.04
175.02,-0.04
175.52,-0.04
176.02,-0.04
176.52,-0.04
177.02,-0.04
177.52,-0.04
178.02,-0.04
178.52,-0.04
179.02,-0.04
179.52,-0.04
180.02,-0.04
180.52,-0.05
181.02,-0.05
181.52,-0.05
182.02,-0.05
182.52,-0.05
183.02,-0.05
183.52,-0.05
184.02,-0.05
184.52,-0.05
185.02,-0.05
185.52,-0.05
186.02,-0.05
186.52,-0.05
187.02,-0.05
187.52,-0.05
188.02,-0.05
188.52,-0.05
189.02,-0.05
189.52,-0.05
190.02,-0.05
190.52,-0.05
191.02,-0.05
191.52,-0.05
192.02,-0.05
192.52,-0.05
193.02,-0.05
193.52,-0.05
194.02,-0.05
194.52,-0.05
195.02,-0.05
195.52,-0.05
196.02,-0.05
196.52,-0.05
197.02,-0.05
197.52,-0.05
198.02,-0.05
198.52,-0.06
199.02,-0.06
199.52,-0.06
200.03,-0.06
200.53,-0.06
201.03,-0.06
201.53,-0.06
202.03,-0.06
202.53,-0.06
203.03,-0.06
203.53,-0.06
204.03,-0.06
204.53,-0.06
205.03,-0.06
205.53,-0.06
206.03,-0.06
206.53,-0.06
207.03,-0.06
207.53,-0.06
208.03,-0.06
208.53,-0.06
209.03,-0.06
209.53,-0.06
210.03,-0.06
210.53,-0.06
211.03,-0.06
211.53,-0.06
212.03,-0.06
212.53,-0.06
213.03,-0.06
213.53,-0.06
214.03,-0.06
214.53,-0.06
215.03,-0.07
215.53,-0.07
216.03,-0.07
216.53,-0.07
217.03,-0.07
217.53,-0.07
218.03,-0.07
218.53,-0.07
219.03,-0.07
219.53,-0.07
220.03,-0.07
220.53,-0.07
221.03,-0.07
221.53,-0.07
222.03,-0.07
222.53,-0.07
223.03,-0.07
223.53,-0.07
224.03,-0.07
224.53,-0.07
225.03,-0.07
225.53,-0.07
226.03,-0.07
226.53,-0.07
227.03,-0.07
227.53,-0.07
228.03,-0.07
228.53,-0.07
229.03,-0.07
229.53,-0.07
230.03,-0.07
230.53,-0.08
231.03,-0.08
231.53,-0.08
232.03,-0.08
232.53,-0.08
233.03,-0.08
233.53,-0.08
234.03,-0.08
234.53,-0.08
235.03,-0.08
235.53,-0.08
236.03,-0.08
236.53,-0.08
237.03,-0.08
237.53,-0.08
238.03,-0.08
238.53,-0.08
239.03,-0.08
239.53,-0.08
240.03,-0.08
240.53,-0.08
241.03,-0.08
241.53,-0.08
242.03,-0.08
242.53,-0.08
243.03,-0.08
243.53,-0.08
244.03,-0.08
244.53,-0.09
245.03,-0.09
245.53,-0.09
246.03,-0.09
246.53,-0.09
247.03,-0.09
247.53,-0.09
248.03,-0.09
248.53,-0.09
249.03,-0.09
249.53,-0.09
250.03,-0.09
250.53,-0.09
251.03,-0.09
251.53,-0.09
252.03,-0.09
252.53,-0.09
253.03,-0.09
253.53,-0.09
254.03,-0.09
254.53,-0.09
255.03,-0.09
255.53,-0.09
256.03,-0.09
256.53,-0.09
257.03,-0.09
257.53,-0.10
258.03,-0.10
258.53,-0.10
259.03,-0.10
259.53,-0.10
260.03,-0.10
260.53,-0.10
261.03,-0.10
261.53,-0.10
262.03,-0.10
262.53,-0.10
263.03,-0.10
263.53,-0.10
264.03,-0.10
264.53,-0.10
265.03,-0.10
265.53,-0.10
266.03,-0.10
266.53,-0.10
267.03,-0.10
267.53,-0.10
268.03,-0.10
268.53,-0.10
269.03,-0.10
269.53,-0.11
270.03,-0.11
270.53,-0.11
271.03,-0.11
271.53,-0.11
272.03,-0.11
272.53,-0.11
273.03,-0.11
273.53,-0.11
274.03,-0.11
274.53,-0.11
275.03,-0.11
275.53,-0.11
276.03,-0.11
276.53,-0.11
277.03,-0.11
277.53,-0.11
278.03,-0.11
278.53,-0.11
279.03,-0.11
279.53,-0.11
280.04,-0.11
280.54,-0.11
281.04,-0.11
281.54,-0.12
282.04,-0.12
282.54,-0.12
283.04,-0.12
283.54,-0.12
284.04,-0.12
284.54,-0.12
285.04,-0.12
285.54,-0.12
286.04,-0.12
286.54,-0.12
287.04,-0.12
287.54,-0.12
288.04,-0.12
288.54,-0.12
289.04,-0.12
289.54,-0.12
290.04,-0.12
290.54,-0.12
291.04,-0.12
291.54,-0.12
292.04,-0.12
292.54,-0.13
293.04,-0.13
293.54,-0.13
294.04,-0.13
294.54,-0.13
295.04,-0.13
295.54,-0.13
296.04,-0.13
296.54,-0.13
297.04,-0.13
297.54,-0.13
298.04,-0.13
298.54,-0.13
299.04,-0.13
299.54,-0.13
300.04,-0.13
300.54,-0.13
301.04,-0.13
301.54,-0.13
302.04,-0.13
302.54,-0.13
303.04,-0.14
303.54,-0.14
304.04,-0.14
304.54,-0.14
305.04,-0.14
305.54,-0.14
306.04,-0.14
306.54,-0.14
307.04,-0.14
307.54,-0.14
308.04,-0.14
308.54,-0.14
309.04,-0.14
309.54,-0.14
310.04,-0.14
310.54,-0.14
311.04,-0.14
311.54,-0.14
312.04,-0.14
312.54,-0.14
313.04,-0.15
313.54,-0.15
314.04,-0.15
314.54,-0.15
315.04,-0.15
315.54,-0.15
316.04,-0.15
316.54,-0.15
317.04,-0.15
317.54,-0.15
318.04,-0.15
318.54,-0.15
319.04,-0.15
319.54,-0.15
320.04,-0.15
320.54,-0.15
321.04,-0.15
321.54,-0.15
322.04,-0.15
322.54,-0.16
323.04,-0.16
323.54,-0.16
324.04,-0.16
324.54,-0.16
325.04,-0.16
325.54,-0.16
326.04,-0.16
326.54,-0.16
327.04,-0.16
327.54,-0.16
328.04,-0.16
328.54,-0.16
329.04,-0.16
329.54,-0.16
330.04,-0.16
330.54,-0.16
331.04,-0.16
331.54,-0.17
332.04,-0.17
332.54,-0.17
333.04,-0.17
333.54,-0.17
334.04,-0.17
334.54,-0.17
335.04,-0.17
335.54,-0.17
336.04,-0.17
336.54,-0.17
337.04,-0.17
337.54,-0.17
338.04,-0.17
338.54,-0.17
339.04,-0.17
339.54,-0.17
340.04,-0.17
340.54,-0.18
341.04,-0.18
341.54,-0.18
342.04,-0.18
342.54,-0.18
343.04,-0.18
343.54,-0.18
344.04,-0.18
344.54,-0.18
345.04,-0.18
345.54,-0.18
346.04,-0.18
346.54,-0.18
347.04,-0.18
347.54,-0.18
348.04,-0.18
348.54,-0.18
349.04,-0.19
349.54,-0.19
350.04,-0.19
350.54,-0.19
351.04,-0.19
351.54,-0.19
352.04,-0.19
352.54,-0.19
353.04,-0.19
353.54,-0.19
354.04,-0.19
354.54,-0.19
355.04,-0.19
355.54,-0.19
356.04,-0.19
356.54,-0.19
357.04,-0.19
357.54,-0.20
358.04,-0.20
358.54,-0.20
359.04,-0.20
359.54,-0.20
360.05,-0.20
360.55,-0.20
361.05,-0.20
361.55,-0.20
362.05,-0.20
362.55,-0.20
363.05,-0.20
363.55,-0.20
364.05,-0.20
364.55,-0.20
365.05,-0.20
365.55,-0.21
366.05,-0.21
366.55,-0.21
367.05,-0.21
367.55,-0.21
368.05,-0.21
368.55,-0.21
369.05,-0.21
369.55,-0.21
370.05,-0.21
370.55,-0.21
371.05,-0.21
371.55,-0.21
372.05,-0.21
372.55,-0.21
373.05,-0.22
373.55,-0.22
374.05,-0.22
374.55,-0.22
375.05,-0.22
375.55,-0.22
376.05,-0.22
376.55,-0.22
377.05,-0.22
377.55,-0.22
378.05,-0.22
378.55,-0.22
379.05,-0.22
379.55,-0.22
380.05,-0.22
380.55,-0.23
381.05,-0.23
381.55,-0.23
382.05,-0.23
382.55,-0.23
383.05,-0.23
383.55,-0.23
384.05,-0.23
384.55,-0.23
385.05,-0.23
385.55,-0.23
386.05,-0.23
386.55,-0.23
387.05,-0.23
387.55,-0.23
388.05,-0.24
388.55,-0.24
389.05,-0.24
389.55,-0.24
390.05,-0.24
390.55,-0.24
391.05,-0.24
391.55,-0.24
392.05,-0.24
392.55,-0.24
393.05,-0.24
393.55,-0.24
394.05,-0.24
394.55,-0.24
395.05,-0.25
395.55,-0.25
396.05,-0.25
396.55,-0.25
397.05,-0.25
397.55,-0.25
398.05,-0.25
398.55,-0.25
399.05,-0.25
399.55,-0.25
400.05,-0.25
400.55,-0.25
401.05,-0.25
401.55,-0.25
402.05,-0.26
402.55,-0.26
403.05,-0.26
403.55,-0.26
404.05,-0.26
404.55,-0.26
405.05,-0.26
405.55,-0.26
406.05,-0.26
406.55,-0.26
407.05,-0.26
407.55,-0.26
408.05,-0.26
408.55,-0.27
409.05,-0.27
409.55,-0.27
410.05,-0.27
410.55,-0.27
411.05,-0.27
411.55,-0.27
412.05,-0.27
412.55,-0.27
413.05,-0.27
413.55,-0.27
414.05,-0.27
414.55,-0.27
415.05,-0.28
415.55,-0.28
416.05,-0.28
416.55,-0.28
417.05,-0.28
417.55,-0.28
418.05,-0.28
418.55,-0.28
419.05,-0.28
419.55,-0.28
420.05,-0.28
420.55,-0.28
421.05,-0.28
421.55,-0.29
422.05,-0.29
422.55,-0.29
423.05,-0.29
423.55,-0.29
424.05,-0.29
424.55,-0.29
425.05,-0.29
425.55,-0.29
426.05,-0.29
426.55,-0.29
427.05,-0.29
427.55,-0.29
428.05,-0.30
428.55,-0.30
429.05,-0.30
429.55,-0.30
430.05,-0.30
430.55,-0.30
431.05,-0.30
431.55,-0.30
432.05,-0.30
432.55,-0.30
433.05,-0.30
433.55,-0.30
434.05,-0.31
434.55,-0.31
435.05,-0.31
435.55,-0.31
436.05,-0.31
436.55,-0.31
437.05,-0.31
437.55,-0.31
438.05,-0.31
438.55,-0.31
439.05,-0.31
439.55,-0.31
440.06,-0.32
440.56,-0.32
441.06,-0.32
441.56,-0.32
442.06,-0.32
442.56,-0.32
443.06,-0.32
443.56,-0.32
444.06,-0.32
444.56,-0.32
445.06,-0.32
445.56,-0.33
446.06,-0.33
446.56,-0.33
447.06,-0.33
447.56,-0.33
448.06,-0.33
448.56,-0.33
449.06,-0.33
449.56,-0.33
450.06,-0.33
450.56,-0.33
451.06,-0.33
451.56,-0.34
452.06,-0.34
452.56,-0.34
453.06,-0.34
453.56,-0.34
454.06,-0.34
454.56,-0.34
455.06,-0.34
455.56,-0.34
456.06,-0.34
456.56,-0.34
457.06,-0.35
457.56,-0.35
458.06,-0.35
458.56,-0.35
459.06,-0.35
459.56,-0.35
460.06,-0.35
460.56,-0.35
461.06,-0.35
461.56,-0.35
462.06,-0.35
462.56,-0.36
463.06,-0.36
463.56,-0.36
464.06,-0.36
464.56,-0.36
465.06,-0.36
465.56,-0.36
466.06,-0.36
466.56,-0.36
467.06,-0.36
467.56,-0.36
468.06,-0.37
468.56,-0.37
469.06,-0.37
469.56,-0.37
470.06,-0.37
470.56,-0.37
471.06,-0.37
471.56,-0.37
472.06,-0.37
472.56,-0.37
473.06,-0.38
473.56,-0.38
474.06,-0.38
474.56,-0.38
475.06,-0.38
475.56,-0.38
476.06,-0.38
476.56,-0.38
477.06,-0.38
477.56,-0.38
478.06,-0.38
478.56,-0.39
479.06,-0.39
479.56,-0.39
480.06,-0.39
480.56,-0.39
481.06,-0.39
481.56,-0.39
482.06,-0.39
482.56,-0.39
483.06,-0.39
483.56,-0.40
484.06,-0.40
484.56,-0.40
485.06,-0.40
485.56,-0.40
486.06,-0.40
486.56,-0.40
487.06,-0.40
487.56,-0.40
488.06,-0.40
488.56,-0.41
489.06,-0.41
489.56,-0.41
490.06,-0.41
490.56,-0.41
491.06,-0.41
491.56,-0.41
492.06,-0.41
492.56,-0.41
493.06,-0.42
493.56,-0.42
494.06,-0.42
494.56,-0.42
495.06,-0.42
495.56,-0.42
496.06,-0.42
496.56,-0.42
497.06,-0.42
497.56,-0.42
498.06,-0.43
498.56,-0.43
499.06,-0.43
499.56,-0.43
500.06,-0.43
500.56,-0.43
501.06,-0.43
501.56,-0.43
502.06,-0.43
502.56,-0.43
503.06,-0.44
503.56,-0.44
504.06,-0.44
504.56,-0.44
505.06,-0.44
505.56,-0.44
506.06,-0.44
506.56,-0.44
507.06,-0.44
507.56,-0.45
508.06,-0.45
508.56,-0.45
509.06,-0.45
509.56,-0.45
510.06,-0.45
510.56,-0.45
511.06,-0.45
511.56,-0.45
512.06,-0.46
512.56,-0.46
513.06,-0.46
513.56,-0.46
514.06,-0.46
514.56,-0.46
515.06,-0.46
515.56,-0.46
516.06,-0.46
516.56,-0.47
517.06,-0.47
517.56,-0.47
518.06,-0.47
518.56,-0.47
519.06,-0.47
519.56,-0.47
520.07,-0.47
520.57,-0.47
521.07,-0.48
521.57,-0.48
522.07,-0.48
522.57,-0.48
523.07,-0.48
523.57,-0.48
524.07,-0.48
524.57,-0.48
525.07,-0.48
525.57,-0.49
526.07,-0.49
526.57,-0.49
527.07,-0.49
527.57,-0.49
528.07,-0.49
528.57,-0.49
529.07,-0.49
529.57,-0.50
530.07,-0.50
530.57,-0.50
531.07,-0.50
531.57,-0.50
532.07,-0.50
532.57,-0.50
533.07,-0.50
533.57,-0.50
534.07,-0.51
534.57,-0.51
535.07,-0.51
535.57,-0.51
536.07,-0.51
536.57,-0.51
537.07,-0.51
537.57,-0.51
538.07,-0.52
538.57,-0.52
539.07,-0.52
539.57,-0.52
540.07,-0.52
540.57,-0.52
541.07,-0.52
541.57,-0.52
542.07,-0.53
542.57,-0.53
543.07,-0.53
543.57,-0.53
544.07,-0.53
544.57,-0.53
545.07,-0.53
545.57,-0.53
546.07,-0.54
546.57,-0.54
547.07,-0.54
547.57,-0.54
548.07,-0.54
548.57,-0.54
549.07,-0.54
549.57,-0.54
550.07,-0.55
550.57,-0.55
551.07,-0.55
551.57,-0.55
552.07,-0.55
552.57,-0.55
553.07,-0.55
553.57,-0.55
554.07,-0.56
554.57,-0.56
555.07,-0.56
555.57,-0.56
556.07,-0.56
556.57,-0.56
557.07,-0.56
557.57,-0.56
558.07,-0.57
558.57,-0.57
559.07,-0.57
559.57,-0.57
560.07,-0.57
560.57,-0.57
561.07,-0.57
561.57,-0.57
562.07,-0.58
562.57,-0.58
563.07,-0.58
563.57,-0.58
564.07,-0.58
564.57,-0.58
565.07,-0.58
565.57,-0.59
566.07,-0.59
566.57,-0.59
567.07,-0.59
567.57,-0.59
568.07,-0.59
568.57,-0.59
569.07,-0.59
569.57,-0.60
570.07,-0.60
570.57,-0.60
571.07,-0.60
571.57,-0.60
572.07,-0.60
572.57,-0.60
573.07,-0.61
573.57,-0.61
574.07,-0.61
574.57,-0.61
575.07,-0.61
575.57,-0.61
576.07,-0.61
576.57,-0.62
577.07,-0.62
577.57,-0.62
578.07,-0.62
578.57,-0.62
579.07,-0.62
579.57,-0.62
580.07,-0.62
580.57,-0.63
581.07,-0.63
581.57,-0.63
582.07,-0.63
582.57,-0.63
583.07,-0.63
583.57,-0.63
584.07,-0.64
584.57,-0.64
585.07,-0.64
585.57,-0.64
586.07,-0.64
586.57,-0.64
587.07,-0.64
587.57,-0.65
588.07,-0.65
588.57,-0.65
589.07,-0.65
589.57,-0.65
590.07,-0.65
590.57,-0.65
591.07,-0.66
591.57,-0.66
592.07,-0.66
592.57,-0.66
593.07,-0.66
593.57,-0.66
594.07,-0.66
594.57,-0.67
595.07,-0.67
595.57,-0.67
596.07,-0.67
596.57,-0.67
597.07,-0.67
597.57,-0.68
598.07,-0.68
598.57,-0.68
599.07,-0.68
599.57,-0.68
600.08,-0.68
600.58,-0.68
601.08,-0.69
601.58,-0.69
602.08,-0.69
602.58,-0.69
603.08,-0.69
603.58,-0.69
604.08,-0.69
604.58,-0.70
605.08,-0.70
605.58,-0.70
606.08,-0.70
606.58,-0.70
607.08,-0.70
607.58,-0.71
608.08,-0.71
608.58,-0.71
609.08,-0.71
609.58,-0.71
610.08,-0.71
610.58,-0.71
611.08,-0.72
611.58,-0.72
612.08,-0.72
612.58,-0.72
613.08,-0.72
613.58,-0.72
614.08,-0.73
614.58,-0.73
615.08,-0.73
615.58,-0.73
616.08,-0.73
616.58,-0.73
617.08,-0.73
617.58,-0.74
618.08,-0.74
618.58,-0.74
619.08,-0.74
619.58,-0.74
620.08,-0.74
620.58,-0.75
621.08,-0.75
621.58,-0.75
622.08,-0.75
622.58,-0.75
623.08,-0.75
623.58,-0.76
624.08,-0.76
624.58,-0.76
625.08,-0.76
625.58,-0.76
626.08,-0.76
626.58,-0.77
627.08,-0.77
627.58,-0.77
628.08,-0.77
628.58,-0.77
629.08,-0.77
629.58,-0.77
630.08,-0.78
630.58,-0.78
631.08,-0.78
631.58,-0.78
632.08,-0.78
632.58,-0.78
633.08,-0.79
633.58,-0.79
634.08,-0.79
634.58,-0.79
635.08,-0.79
635.58,-0.79
636.08,-0.80
636.58,-0.80
637.08,-0.80
637.58,-0.80
638.08,-0.80
638.58,-0.80
639.08,-0.81
639.58,-0.81
640.08,-0.81
640.58,-0.81
641.08,-0.81
641.58,-0.82
642.08,-0.82
642.58,-0.82
643.08,-0.82
643.58,-0.82
644.08,-0.82
644.58,-0.83
645.08,-0.83
645.58,-0.83
646.08,-0.83
646.58,-0.83
647.08,-0.83
647.58,-0.84
648.08,-0.84
648.58,-0.84
649.08,-0.84
649.58,-0.84
650.08,-0.84
650.58,-0.85
651.08,-0.85
651.58,-0.85
652.08,-0.85
652.58,-0.85
653.08,-0.86
653.58,-0.86
654.08,-0.86
654.58,-0.86
655.08,-0.86
655.58,-0.86
656.08,-0.87
656.58,-0.87
657.08,-0.87
657.58,-0.87
658.08,-0.87
658.58,-0.87
659.08,-0.88
659.58,-0.88
660.08,-0.88
660.58,-0.88
661.08,-0.88
661.58,-0.89
662.08,-0.89
662.58,-0.89
663.08,-0.89
663.58,-0.89
664.08,-0.89
664.58,-0.90
665.08,-0.90
665.58,-0.90
666.08,-0.90
666.58,-0.90
667.08,-0.91
667.58,-0.91
668.08,-0.91
668.58,-0.91
669.08,-0.91
669.58,-0.92
670.08,-0.92
670.58,-0.92
671.08,-0.92
671.58,-0.92
672.08,-0.92
672.58,-0.93
673.08,-0.93
673.58,-0.93
674.08,-0.93
674.58,-0.93
675.08,-0.94
675.58,-0.94
676.08,-0.94
676.58,-0.94
677.08,-0.94
677.58,-0.95
678.08,-0.95
678.58,-0.95
679.08,-0.95
679.58,-0.95
680.09,-0.96
680.59,-0.96
681.09,-0.96
681.59,-0.96
682.09,-0.96
682.59,-0.96
683.09,-0.97
683.59,-0.97
684.09,-0.97
684.59,-0.97
685.09,-0.97
685.59,-0.98
686.09,-0.98
686.59,-0.98
687.09,-0.98
687.59,-0.98
688.09,-0.99
688.59,-0.99
689.09,-0.99
689.59,-0.99
690.09,-0.99
690.59,-1.00
691.09,-1.00
691.59,-1.00
692.09,-1.00
692.59,-1.00
693.09,-1.01
693.59,-1.01
694.09,-1.01
694.59,-1.01
695.09,-1.01
695.59,-1.02
696.09,-1.02
696.59,-1.02
697.09,-1.02
697.59,-1.02
698.09,-1.03
698.59,-1.03
699.09,-1.03
699.59,-1.03
700.09,-1.03
700.59,-1.04
701.09,-1.04
701.59,-1.04
702.09,-1.04
702.59,-1.05
703.09,-1.05
703.59,-1.05
704.09,-1.05
704.59,-1.05
705.09,-1.06
705.59,-1.06
706.09,-1.06
706.59,-1.06
707.09,-1.06
707.59,-1.07
708.09,-1.07
708.59,-1.07
709.09,-1.07
709.59,-1.07
710.09,-1.08
710.59,-1.08
711.09,-1.08
711.59,-1.08
712.09,-1.09
712.59,-1.09
713.09,-1.09
713.59,-1.09
714.09,-1.09
714.59,-1.10
715.09,-1.10
715.59,-1.10
716.09,-1.10
716.59,-1.10
717.09,-1.11
717.59,-1.11
718.09,-1.11
718.59,-1.11
719.09,-1.12
719.59,-1.12
720.09,-1.12
720.59,-1.12
721.09,-1.12
721.59,-1.13
722.09,-1.13
722.59,-1.13
723.09,-1.13
723.59,-1.14
724.09,-1.14
724.59,-1.14
725.09,-1.14
725.59,-1.14
726.09,-1.15
726.59,-1.15
727.09,-1.15
727.59,-1.15
728.09,-1.16
728.59,-1.16
729.09,-1.16
729.59,-1.16
730.09,-1.16
730.59,-1.17
731.09,-1.17
731.59,-1.17
732.09,-1.17
732.59,-1.18
733.09,-1.18
733.59,-1.18
734.09,-1.18
734.59,-1.18
735.09,-1.19
735.59,-1.19
736.09,-1.19
736.59,-1.19
737.09,-1.20
737.59,-1.20
738.09,-1.20
738.59,-1.20
739.09,-1.21
739.59,-1.21
740.09,-1.21
740.59,-1.21
741.09,-1.21
741.59,-1.22
742.09,-1.22
742.59,-1.22
743.09,-1.22
743.59,-1.23
744.09,-1.23
744.59,-1.23
745.09,-1.23
745.59,-1.24
746.09,-1.24
746.59,-1.24
747.09,-1.24
747.59,-1.25
748.09,-1.25
748.59,-1.25
749.09,-1.25
749.59,-1.25
750.09,-1.26
750.59,-1.26
751.09,-1.26
751.59,-1.26
752.09,-1.27
752.59,-1.27
753.09,-1.27
753.59,-1.27
754.09,-1.28
754.59,-1.28
755.09,-1.28
755.59,-1.28
756.09,-1.29
756.59,-1.29
757.09,-1.29
757.59,-1.29
758.09,-1.30
758.59,-1.30
759.09,-1.30
759.59,-1.30
760.10,-1.31
760.60,-1.31
761.10,-1.31
761.60,-1.31
762.10,-1.32
762.60,-1.32
763.10,-1.32
763.60,-1.32
764.10,-1.33
764.60,-1.33
765.10,-1.33
765.60,-1.33
766.10,-1.34
766.60,-1.34
767.10,-1.34
767.60,-1.34
768.10,-1.35
768.60,-1.35
769.10,-1.35
769.60,-1.35
770.10,-1.36
770.60,-1.36
771.10,-1.36
771.60,-1.36
772.10,-1.37
772.60,-1.37
773.10,-1.37
773.60,-1.37
774.10,-1.38
774.60,-1.38
775.10,-1.38
775.60,-1.38
776.10,-1.39
