Frequency(Hz),Magnitude(dB)
0.00,0.00
0.50,-0.00
1.00,-0.00
1.50,-0.00
2.00,-0.00
2.50,-0.00
3.00,-0.00
3.50,-0.00
4.00,-0.00
4.50,-0.00
5.00,-0.00
5.50,-0.00
6.00,-0.00
6.50,-0.00
7.00,-0.00
7.50,-0.00
8.00,-0.00
8.50,-0.00
9.00,-0.00
9.50,-0.00
10.00,-0.00
10.50,-0.00
11.00,-0.00
11.50,-0.00
12.00,-0.00
12.50,-0.00
13.00,-0.00
13.50,-0.00
14.00,-0.00
14.50,-0.00
15.00,-0.00
15.50,-0.00
16.00,-0.00
16.50,-0.00
17.00,-0.00
17.50,-0.00
18.00,-0.00
18.50,-0.00
19.00,-0.00
19.50,-0.00
20.00,-0.00
20.50,-0.00
21.00,-0.00
21.50,-0.00
22.00,-0.00
22.50,-0.00
23.00,-0.00
23.50,-0.00
24.00,-0.00
24.50,-0.00
25.00,-0.00
25.50,-0.00
26.00,-0.00
26.50,-0.00
27.00,-0.00
27.50,-0.00
28.00,-0.00
28.50,-0.00
29.00,-0.00
29.50,-0.00
30.00,-0.00
30.50,-0.00
31.00,-0.00
31.50,-0.00
32.00,-0.00
32.50,-0.00
33.00,-0.00
33.50,-0.00
34.00,-0.00
34.50,-0.00
35.00,-0.00
35.50,-0.00
36.00,-0.00
36.50,-0.00
37.00,-0.00
37.50,-0.00
38.00,-0.00
38.50,-0.01
39.00,-0.01
39.50,-0.01
40.01,-0.01
40.51,-0.01
41.01,-0.01
41.51,-0.01
42.01,-0.01
42.51,-0.01
43.01,-0.01
43.51,-0.01
44.01,-0.01
44.51,-0.01
45.01,-0.01
45.51,-0.01
46.01,-0.01
46.51,-0.01
47.01,-0.01
47.51,-0.01
48.01,-0.01
48.51,-0.01
49.01,-0.01
49.51,-0.01
50.01,-0.01
50.51,-0.01
51.01,-0.01
51.51,-0.01
52.01,-0.01
52.51,-0.01
53.01,-0.01
53.51,-0.01
54.01,-0.01
54.51,-0.01
55.01,-0.01
55.51,-0.01
56.01,-0.01
56.51,-0.01
57.01,-0.01
57.51,-0.01
58.01,-0.01
58.51,-0.01
59.01,-0.01
59.51,-0.01
60.01,-0.01
60.51,-0.01
61.01,-0.01
61.51,-0.01
62.01,-0.01
62.51,-0.01
63.01,-0.01
63.51,-0.01
64.01,-0.01
64.51,-0.01
65.01,-0.01
65.51,-0.01
66.01,-0.01
66.51,-0.02
67.01,-0.02
67.51,-0.02
68.01,-0.02
68.51,-0.02
69.01,-0.02
69.51,-0.02
70.01,-0.02
70.51,-0.02
71.01,-0.02
71.51,-0.02
72.01,-0.02
72.51,-0.02
73.01,-0.02
73.51,-0.02
74.01,-0.02
74.51,-0.02
75.01,-0.02
75.51,-0.02
76.01,-0.02
76.51,-0.02
77.01,-0.02
77.51,-0.02
78.01,-0.02
78.51,-0.02
79.01,-0.02
79.51,-0.02
80.01,-0.02
80.51,-0.02
81.01,-0.02
81.51,-0.02
82.01,-0.02
82.51,-0.02
83.01,-0.02
83.51,-0.02
84.01,-0.02
84.51,-0.02
85.01,-0.02
85.51,-0.02
86.01,-0.03
86.51,-0.03
87.01,-0.03
87.51,-0.03
88.01,-0.03
88.51,-0.03
89.01,-0.03
89.51,-0.03
90.01,-0.03
90.51,-0.03
91.01,-0.03
91.51,-0.03
92.01,-0.03
92.51,-0.03
93.01,-0.03
93.51,-0.03
94.01,-0.03
94.51,-0.03
95.01,-0.03
95.51,-0.03
96.01,-0.03
96.51,-0.03
97.01,-0.03
97.51,-0.03
98.01,-0.03
98.51,-0.03
99.01,-0.03
99.51,-0.03
100.01,-0.03
100.51,-0.03
101.01,-0.03
101.51,-0.04
102.01,-0.04
102.51,-0.04
103.01,-0.04
103.51,-0.04
104.01,-0.04
104.51,-0.04
105.01,-0.04
105.51,-0.04
106.01,-0.04
106.51,-0.04
107.01,-0.04
107.51,-0.04
108.01,-0.04
108.51,-0.04
109.01,-0.04
109.51,-0.04
110.01,-0.04
110.51,-0.04
111.01,-0.04
111.51,-0.04
112.01,-0.04
112.51,-0.04
113.01,-0.04
113.51,-0.04
114.01,-0.04
114.51,-0.04
115.01,-0.05
115.51,-0.05
116.01,-0.05
116.51,-0.05
117.01,-0.05
117.51,-0.05
118.01,-0.05
118.51,-0.05
119.01,-0.05
119.51,-0.05
120.02,-0.05
120.52,-0.05
121.02,-0.05
121.52,-0.05
122.02,-0.05
122.52,-0.05
123.02,-0.05
123.52,-0.05
124.02,-0.05
124.52,-0.05
125.02,-0.05
125.52,-0.05
126.02,-0.05
126.52,-0.05
127.02,-0.05
127.52,-0.06
128.02,-0.06
128.52,-0.06
129.02,-0.06
129.52,-0.06
130.02,-0.06
130.52,-0.06
131.02,-0.06
131.52,-0.06
132.02,-0.06
132.52,-0.06
133.02,-0.06
133.52,-0.06
134.02,-0.06
134.52,-0.06
135.02,-0.06
135.52,-0.06
136.02,-0.06
136.52,-0.06
137.02,-0.06
137.52,-0.06
138.02,-0.06
138.52,-0.07
139.02,-0.07
139.52,-0.07
140.02,-0.07
140.52,-0.07
141.02,-0.07
141.52,-0.07
142.02,-0.07
142.52,-0.07
143.02,-0.07
143.52,-0.07
144.02,-0.07
144.52,-0.07
145.02,-0.07
145.52,-0.07
146.02,-0.07
146.52,-0.07
147.02,-0.07
147.52,-0.07
148.02,-0.07
148.52,-0.08
149.02,-0.08
149.52,-0.08
150.02,-0.08
150.52,-0.08
151.02,-0.08
151.52,-0.08
152.02,-0.08
152.52,-0.08
153.02,-0.08
153.52,-0.08
154.02,-0.08
154.52,-0.08
155.02,-0.08
155.52,-0.08
156.02,-0.08
156.52,-0.08
157.02,-0.08
157.52,-0.08
158.02,-0.08
158.52,-0.09
159.02,-0.09
159.52,-0.09
160.02,-0.09
160.52,-0.09
161.02,-0.09
161.52,-0.09
162.02,-0.09
162.52,-0.09
163.02,-0.09
163.52,-0.09
164.02,-0.09
164.52,-0.09
165.02,-0.09
165.52,-0.09
166.02,-0.09
166.52,-0.09
167.02,-0.09
167.52,-0.10
168.02,-0.10
168.52,-0.10
169.02,-0.10
169.52,-0.10
170.02,-0.10
170.52,-0.10
171.02,-0.10
171.52,-0.10
172.02,-0.10
172.52,-0.10
173.02,-0.10
173.52,-0.10
174.02,-0.10
174.52,-0.10
175.02,-0.10
175.52,-0.10
176.02,-0.11
176.52,-0.11
177.02,-0.11
177.52,-0.11
178.02,-0.11
178.52,-0.11
179.02,-0.11
179.52,-0.11
180.02,-0.11
180.52,-0.11
181.02,-0.11
181.52,-0.11
182.02,-0.11
182.52,-0.11
183.02,-0.11
183.52,-0.11
184.02,-0.12
184.52,-0.12
185.02,-0.12
185.52,-0.12
186.02,-0.12
186.52,-0.12
187.02,-0.12
187.52,-0.12
188.02,-0.12
188.52,-0.12
189.02,-0.12
189.52,-0.12
190.02,-0.12
190.52,-0.12
191.02,-0.12
191.52,-0.12
192.02,-0.13
192.52,-0.13
193.02,-0.13
193.52,-0.13
194.02,-0.13
194.52,-0.13
195.02,-0.13
195.52,-0.13
196.02,-0.13
196.52,-0.13
197.02,-0.13
197.52,-0.13
198.02,-0.13
198.52,-0.13
199.02,-0.13
199.52,-0.14
200.03,-0.14
200.53,-0.14
201.03,-0.14
201.53,-0.14
202.03,-0.14
202.53,-0.14
203.03,-0.14
203.53,-0.14
204.03,-0.14
204.53,-0.14
205.03,-0.14
205.53,-0.14
206.03,-0.14
206.53,-0.14
207.03,-0.15
207.53,-0.15
208.03,-0.15
208.53,-0.15
209.03,-0.15
209.53,-0.15
210.03,-0.15
210.53,-0.15
211.03,-0.15
211.53,-0.15
212.03,-0.15
212.53,-0.15
213.03,-0.15
213.53,-0.15
214.03,-0.16
214.53,-0.16
215.03,-0.16
215.53,-0.16
216.03,-0.16
216.53,-0.16
217.03,-0.16
217.53,-0.16
218.03,-0.16
218.53,-0.16
219.03,-0.16
219.53,-0.16
220.03,-0.16
220.53,-0.17
221.03,-0.17
221.53,-0.17
222.03,-0.17
222.53,-0.17
223.03,-0.17
223.53,-0.17
224.03,-0.17
224.53,-0.17
225.03,-0.17
225.53,-0.17
226.03,-0.17
226.53,-0.17
227.03,-0.17
227.53,-0.18
228.03,-0.18
228.53,-0.18
229.03,-0.18
229.53,-0.18
230.03,-0.18
230.53,-0.18
231.03,-0.18
231.53,-0.18
232.03,-0.18
232.53,-0.18
233.03,-0.18
233.53,-0.19
234.03,-0.19
234.53,-0.19
235.03,-0.19
235.53,-0.19
236.03,-0.19
236.53,-0.19
237.03,-0.19
237.53,-0.19
238.03,-0.19
238.53,-0.19
239.03,-0.19
239.53,-0.19
240.03,-0.20
240.53,-0.20
241.03,-0.20
241.53,-0.20
242.03,-0.20
242.53,-0.20
243.03,-0.20
243.53,-0.20
244.03,-0.20
244.53,-0.20
245.03,-0.20
245.53,-0.20
246.03,-0.21
246.53,-0.21
247.03,-0.21
247.53,-0.21
248.03,-0.21
248.53,-0.21
249.03,-0.21
249.53,-0.21
250.03,-0.21
250.53,-0.21
251.03,-0.21
251.53,-0.21
252.03,-0.22
252.53,-0.22
253.03,-0.22
253.53,-0.22
254.03,-0.22
254.53,-0.22
255.03,-0.22
255.53,-0.22
256.03,-0.22
256.53,-0.22
257.03,-0.22
257.53,-0.22
258.03,-0.23
258.53,-0.23
259.03,-0.23
259.53,-0.23
260.03,-0.23
260.53,-0.23
261.03,-0.23
261.53,-0.23
262.03,-0.23
262.53,-0.23
263.03,-0.23
263.53,-0.24
264.03,-0.24
264.53,-0.24
265.03,-0.24
265.53,-0.24
266.03,-0.24
266.53,-0.24
267.03,-0.24
267.53,-0.24
268.03,-0.24
268.53,-0.24
269.03,-0.25
269.53,-0.25
270.03,-0.25
270.53,-0.25
271.03,-0.25
271.53,-0.25
272.03,-0.25
272.53,-0.25
273.03,-0.25
273.53,-0.25
274.03,-0.25
274.53,-0.26
275.03,-0.26
275.53,-0.26
276.03,-0.26
276.53,-0.26
277.03,-0.26
277.53,-0.26
278.03,-0.26
278.53,-0.26
279.03,-0.26
279.53,-0.26
280.04,-0.27
280.54,-0.27
281.04,-0.27
281.54,-0.27
282.04,-0.27
282.54,-0.27
283.04,-0.27
283.54,-0.27
284.04,-0.27
284.54,-0.27
285.04,-0.28
285.54,-0.28
286.04,-0.28
286.54,-0.28
287.04,-0.28
287.54,-0.28
288.04,-0.28
288.54,-0.28
289.04,-0.28
289.54,-0.28
290.04,-0.28
290.54,-0.29
291.04,-0.29
291.54,-0.29
292.04,-0.29
292.54,-0.29
293.04,-0.29
293.54,-0.29
294.04,-0.29
294.54,-0.29
295.04,-0.29
295.54,-0.30
296.04,-0.30
296.54,-0.30
297.04,-0.30
297.54,-0.30
298.04,-0.30
298.54,-0.30
299.04,-0.30
299.54,-0.30
300.04,-0.30
300.54,-0.31
301.04,-0.31
301.54,-0.31
302.04,-0.31
302.54,-0.31
303.04,-0.31
303.54,-0.31
304.04,-0.31
304.54,-0.31
305.04,-0.31
305.54,-0.32
306.04,-0.32
306.54,-0.32
307.04,-0.32
307.54,-0.32
308.04,-0.32
308.54,-0.32
309.04,-0.32
309.54,-0.32
310.04,-0.32
310.54,-0.33
311.04,-0.33
311.54,-0.33
312.04,-0.33
312.54,-0.33
313.04,-0.33
313.54,-0.33
314.04,-0.33
314.54,-0.33
315.04,-0.34
315.54,-0.34
316.04,-0.34
316.54,-0.34
317.04,-0.34
317.54,-0.34
318.04,-0.34
318.54,-0.34
319.04,-0.34
319.54,-0.35
320.04,-0.35
320.54,-0.35
321.04,-0.35
321.54,-0.35
322.04,-0.35
322.54,-0.35
323.04,-0.35
323.54,-0.35
324.04,-0.35
324.54,-0.36
325.04,-0.36
325.54,-0.36
326.04,-0.36
326.54,-0.36
327.04,-0.36
327.54,-0.36
328.04,-0.36
328.54,-0.36
329.04,-0.37
329.54,-0.37
330.04,-0.37
330.54,-0.37
331.04,-0.37
331.54,-0.37
332.04,-0.37
332.54,-0.37
333.04,-0.37
333.54,-0.38
334.04,-0.38
334.54,-0.38
335.04,-0.38
335.54,-0.38
336.04,-0.38
336.54,-0.38
337.04,-0.38
337.54,-0.38
338.04,-0.39
338.54,-0.39
339.04,-0.39
339.54,-0.39
340.04,-0.39
340.54,-0.39
341.04,-0.39
341.54,-0.39
342.04,-0.39
342.54,-0.40
343.04,-0.40
343.54,-0.40
344.04,-0.40
344.54,-0.40
345.04,-0.40
345.54,-0.40
346.04,-0.40
346.54,-0.41
347.04,-0.41
347.54,-0.41
348.04,-0.41
348.54,-0.41
349.04,-0.41
349.54,-0.41
350.04,-0.41
350.54,-0.41
351.04,-0.42
351.54,-0.42
352.04,-0.42
352.54,-0.42
353.04,-0.42
353.54,-0.42
354.04,-0.42
354.54,-0.42
355.04,-0.43
355.54,-0.43
356.04,-0.43
356.54,-0.43
357.04,-0.43
357.54,-0.43
358.04,-0.43
358.54,-0.43
359.04,-0.43
359.54,-0.44
360.05,-0.44
360.55,-0.44
361.05,-0.44
361.55,-0.44
362.05,-0.44
362.55,-0.44
363.05,-0.44
363.55,-0.45
364.05,-0.45
364.55,-0.45
365.05,-0.45
365.55,-0.45
366.05,-0.45
366.55,-0.45
367.05,-0.45
367.55,-0.46
368.05,-0.46
368.55,-0.46
369.05,-0.46
369.55,-0.46
370.05,-0.46
370.55,-0.46
371.05,-0.46
371.55,-0.46
372.05,-0.47
372.55,-0.47
373.05,-0.47
373.55,-0.47
374.05,-0.47
374.55,-0.47
375.05,-0.47
375.55,-0.47
376.05,-0.48
376.55,-0.48
377.05,-0.48
377.55,-0.48
378.05,-0.48
378.55,-0.48
379.05,-0.48
379.55,-0.48
380.05,-0.49
380.55,-0.49
381.05,-0.49
381.55,-0.49
382.05,-0.49
382.55,-0.49
383.05,-0.49
383.55,-0.50
384.05,-0.50
384.55,-0.50
385.05,-0.50
385.55,-0.50
386.05,-0.50
386.55,-0.50
387.05,-0.50
387.55,-0.51
388.05,-0.51
388.55,-0.51
389.05,-0.51
389.55,-0.51
390.05,-0.51
390.55,-0.51
391.05,-0.51
391.55,-0.52
392.05,-0.52
392.55,-0.52
393.05,-0.52
393.55,-0.52
394.05,-0.52
394.55,-0.52
395.05,-0.52
395.55,-0.53
396.05,-0.53
396.55,-0.53
397.05,-0.53
397.55,-0.53
398.05,-0.53
398.55,-0.53
399.05,-0.54
399.55,-0.54
400.05,-0.54
400.55,-0.54
401.05,-0.54
401.55,-0.54
402.05,-0.54
402.55,-0.54
403.05,-0.55
403.55,-0.55
404.05,-0.55
404.55,-0.55
405.05,-0.55
405.55,-0.55
406.05,-0.55
406.55,-0.56
407.05,-0.56
407.55,-0.56
408.05,-0.56
408.55,-0.56
409.05,-0.56
409.55,-0.56
410.05,-0.56
410.55,-0.57
411.05,-0.57
411.55,-0.57
412.05,-0.57
412.55,-0.57
413.05,-0.57
413.55,-0.57
414.05,-0.58
414.55,-0.58
415.05,-0.58
415.55,-0.58
416.05,-0.58
416.55,-0.58
417.05,-0.58
417.55,-0.59
418.05,-0.59
418.55,-0.59
419.05,-0.59
419.55,-0.59
420.05,-0.59
420.55,-0.59
421.05,-0.60
421.55,-0.60
422.05,-0.60
422.55,-0.60
423.05,-0.60
423.55,-0.60
424.05,-0.60
424.55,-0.60
425.05,-0.61
425.55,-0.61
426.05,-0.61
426.55,-0.61
427.05,-0.61
427.55,-0.61
428.05,-0.61
428.55,-0.62
429.05,-0.62
429.55,-0.62
430.05,-0.62
430.55,-0.62
431.05,-0.62
431.55,-0.62
432.05,-0.63
432.55,-0.63
433.05,-0.63
433.55,-0.63
434.05,-0.63
434.55,-0.63
435.05,-0.63
435.55,-0.64
436.05,-0.64
436.55,-0.64
437.05,-0.64
437.55,-0.64
438.05,-0.64
438.55,-0.64
439.05,-0.65
439.55,-0.65
440.06,-0.65
440.56,-0.65
441.06,-0.65
441.56,-0.65
442.06,-0.65
442.56,-0.66
443.06,-0.66
443.56,-0.66
444.06,-0.66
444.56,-0.66
445.06,-0.66
445.56,-0.67
446.06,-0.67
446.56,-0.67
447.06,-0.67
447.56,-0.67
448.06,-0.67
448.56,-0.67
449.06,-0.68
449.56,-0.68
450.06,-0.68
450.56,-0.68
451.06,-0.68
451.56,-0.68
452.06,-0.68
452.56,-0.69
453.06,-0.69
453.56,-0.69
454.06,-0.69
454.56,-0.69
455.06,-0.69
455.56,-0.69
456.06,-0.70
456.56,-0.70
457.06,-0.70
457.56,-0.70
458.06,-0.70
458.56,-0.70
459.06,-0.71
459.56,-0.71
460.06,-0.71
460.56,-0.71
461.06,-0.71
461.56,-0.71
462.06,-0.71
462.56,-0.72
463.06,-0.72
463.56,-0.72
464.06,-0.72
464.56,-0.72
465.06,-0.72
465.56,-0.72
466.06,-0.73
466.56,-0.73
467.06,-0.73
467.56,-0.73
468.06,-0.73
468.56,-0.73
469.06,-0.74
469.56,-0.74
470.06,-0.74
470.56,-0.74
471.06,-0.74
471.56,-0.74
472.06,-0.74
472.56,-0.75
473.06,-0.75
473.56,-0.75
474.06,-0.75
474.56,-0.75
475.06,-0.75
475.56,-0.76
476.06,-0.76
476.56,-0.76
477.06,-0.76
477.56,-0.76
478.06,-0.76
478.56,-0.77
479.06,-0.77
479.56,-0.77
480.06,-0.77
480.56,-0.77
481.06,-0.77
481.56,-0.77
482.06,-0.78
482.56,-0.78
483.06,-0.78
483.56,-0.78
484.06,-0.78
484.56,-0.78
485.06,-0.79
485.56,-0.79
486.06,-0.79
486.56,-0.79
487.06,-0.79
487.56,-0.79
488.06,-0.80
488.56,-0.80
489.06,-0.80
489.56,-0.80
490.06,-0.80
490.56,-0.80
491.06,-0.80
491.56,-0.81
492.06,-0.81
492.56,-0.81
493.06,-0.81
493.56,-0.81
494.06,-0.81
494.56,-0.82
495.06,-0.82
495.56,-0.82
496.06,-0.82
496.56,-0.82
497.06,-0.82
497.56,-0.83
498.06,-0.83
498.56,-0.83
499.06,-0.83
499.56,-0.83
500.06,-0.83
500.56,-0.84
501.06,-0.84
501.56,-0.84
502.06,-0.84
502.56,-0.84
503.06,-0.84
503.56,-0.85
504.06,-0.85
504.56,-0.85
505.06,-0.85
505.56,-0.85
506.06,-0.85
506.56,-0.86
507.06,-0.86
507.56,-0.86
508.06,-0.86
508.56,-0.86
509.06,-0.86
509.56,-0.87
510.06,-0.87
510.56,-0.87
511.06,-0.87
511.56,-0.87
512.06,-0.87
512.56,-0.88
513.06,-0.88
513.56,-0.88
514.06,-0.88
514.56,-0.88
515.06,-0.88
515.56,-0.89
516.06,-0.89
516.56,-0.89
517.06,-0.89
517.56,-0.89
518.06,-0.89
518.56,-0.90
519.06,-0.90
519.56,-0.90
520.07,-0.90
520.57,-0.90
521.07,-0.90
521.57,-0.91
522.07,-0.91
522.57,-0.91
523.07,-0.91
523.57,-0.91
524.07,-0.91
524.57,-0.92
525.07,-0.92
525.57,-0.92
526.07,-0.92
526.57,-0.92
527.07,-0.92
527.57,-0.93
528.07,-0.93
528.57,-0.93
529.07,-0.93
529.57,-0.93
530.07,-0.93
530.57,-0.94
531.07,-0.94
531.57,-0.94
532.07,-0.94
532.57,-0.94
533.07,-0.94
533.57,-0.95
534.07,-0.95
534.57,-0.95
535.07,-0.95
535.57,-0.95
536.07,-0.96
536.57,-0.96
537.07,-0.96
537.57,-0.96
538.07,-0.96
538.57,-0.96
539.07,-0.97
539.57,-0.97
540.07,-0.97
540.57,-0.97
541.07,-0.97
541.57,-0.97
542.07,-0.98
542.57,-0.98
543.07,-0.98
543.57,-0.98
544.07,-0.98
544.57,-0.99
545.07,-0.99
545.57,-0.99
546.07,-0.99
546.57,-0.99
547.07,-0.99
547.57,-1.00
548.07,-1.00
548.57,-1.00
549.07,-1.00
549.57,-1.00
550.07,-1.00
550.57,-1.01
551.07,-1.01
551.57,-1.01
552.07,-1.01
552.57,-1.01
553.07,-1.02
553.57,-1.02
554.07,-1.02
554.57,-1.02
555.07,-1.02
555.57,-1.02
556.07,-1.03
556.57,-1.03
557.07,-1.03
557.57,-1.03
558.07,-1.03
558.57,-1.04
559.07,-1.04
559.57,-1.04
560.07,-1.04
560.57,-1.04
561.07,-1.04
561.57,-1.05
562.07,-1.05
562.57,-1.05
563.07,-1.05
563.57,-1.05
564.07,-1.06
564.57,-1.06
565.07,-1.06
565.57,-1.06
566.07,-1.06
566.57,-1.06
567.07,-1.07
567.57,-1.07
568.07,-1.07
568.57,-1.07
569.07,-1.07
569.57,-1.08
570.07,-1.08
570.57,-1.08
571.07,-1.08
571.57,-1.08
572.07,-1.08
572.57,-1.09
573.07,-1.09
573.57,-1.09
574.07,-1.09
574.57,-1.09
575.07,-1.10
575.57,-1.10
576.07,-1.10
576.57,-1.10
577.07,-1.10
577.57,-1.10
578.07,-1.11
578.57,-1.11
579.07,-1.11
579.57,-1.11
580.07,-1.11
580.57,-1.12
581.07,-1.12
581.57,-1.12
582.07,-1.12
582.57,-1.12
583.07,-1.13
583.57,-1.13
584.07,-1.13
584.57,-1.13
585.07,-1.13
585.57,-1.13
586.07,-1.14
586.57,-1.14
587.07,-1.14
587.57,-1.14
588.07,-1.14
588.57,-1.15
589.07,-1.15
589.57,-1.15
590.07,-1.15
590.57,-1.15
591.07,-1.16
591.57,-1.16
592.07,-1.16
592.57,-1.16
593.07,-1.16
593.57,-1.16
594.07,-1.17
594.57,-1.17
595.07,-1.17
595.57,-1.17
596.07,-1.17
596.57,-1.18
597.07,-1.18
597.57,-1.18
598.07,-1.18
598.57,-1.18
599.07,-1.19
599.57,-1.19
600.08,-1.19
600.58,-1.19
601.08,-1.19
601.58,-1.20
602.08,-1.20
602.58,-1.20
603.08,-1.20
603.58,-1.20
604.08,-1.21
604.58,-1.21
605.08,-1.21
605.58,-1.21
606.08,-1.21
606.58,-1.21
607.08,-1.22
607.58,-1.22
608.08,-1.22
608.58,-1.22
609.08,-1.22
609.58,-1.23
610.08,-1.23
610.58,-1.23
611.08,-1.23
611.58,-1.23
612.08,-1.24
612.58,-1.24
613.08,-1.24
613.58,-1.24
614.08,-1.24
614.58,-1.25
615.08,-1.25
615.58,-1.25
616.08,-1.25
616.58,-1.25
617.08,-1.26
617.58,-1.26
618.08,-1.26
618.58,-1.26
619.08,-1.26
619.58,-1.27
620.08,-1.27
620.58,-1.27
621.08,-1.27
621.58,-1.27
622.08,-1.28
622.58,-1.28
623.08,-1.28
623.58,-1.28
624.08,-1.28
624.58,-1.29
625.08,-1.29
625.58,-1.29
626.08,-1.29
626.58,-1.29
627.08,-1.30
627.58,-1.30
628.08,-1.30
628.58,-1.30
629.08,-1.30
629.58,-1.31
630.08,-1.31
630.58,-1.31
631.08,-1.31
631.58,-1.31
632.08,-1.32
632.58,-1.32
633.08,-1.32
633.58,-1.32
634.08,-1.32
634.58,-1.33
635.08,-1.33
635.58,-1.33
636.08,-1.33
636.58,-1.33
637.08,-1.34
637.58,-1.34
638.08,-1.34
638.58,-1.34
639.08,-1.34
639.58,-1.35
640.08,-1.35
640.58,-1.35
641.08,-1.35
641.58,-1.35
642.08,-1.36
642.58,-1.36
643.08,-1.36
643.58,-1.36
644.08,-1.36
644.58,-1.37
645.08,-1.37
645.58,-1.37
646.08,-1.37
646.58,-1.37
647.08,-1.38
647.58,-1.38
648.08,-1.38
648.58,-1.38
649.08,-1.39
649.58,-1.39
650.08,-1.39
650.58,-1.39
651.08,-1.39
651.58,-1.40
652.08,-1.40
652.58,-1.40
653.08,-1.40
653.58,-1.40
654.08,-1.41
654.58,-1.41
655.08,-1.41
655.58,-1.41
656.08,-1.41
656.58,-1.42
657.08,-1.42
657.58,-1.42
658.08,-1.42
658.58,-1.42
659.08,-1.43
659.58,-1.43
660.08,-1.43
660.58,-1.43
661.08,-1.43
661.58,-1.44
662.08,-1.44
662.58,-1.44
663.08,-1.44
663.58,-1.45
664.08,-1.45
664.58,-1.45
665.08,-1.45
665.58,-1.45
666.08,-1.46
666.58,-1.46
667.08,-1.46
667.58,-1.46
668.08,-1.46
668.58,-1.47
669.08,-1.47
669.58,-1.47
670.08,-1.47
670.58,-1.48
671.08,-1.48
671.58,-1.48
672.08,-1.48
672.58,-1.48
673.08,-1.49
673.58,-1.49
674.08,-1.49
674.58,-1.49
675.08,-1.49
675.58,-1.50
676.08,-1.50
676.58,-1.50
677.08,-1.50
677.58,-1.50
678.08,-1.51
678.58,-1.51
679.08,-1.51
679.58,-1.51
680.09,-1.52
680.59,-1.52
681.09,-1.52
681.59,-1.52
682.09,-1.52
682.59,-1.53
683.09,-1.53
683.59,-1.53
684.09,-1.53
684.59,-1.53
685.09,-1.54
685.59,-1.54
686.09,-1.54
686.59,-1.54
687.09,-1.55
687.59,-1.55
688.09,-1.55
688.59,-1.55
689.09,-1.55
689.59,-1.56
690.09,-1.56
690.59,-1.56
691.09,-1.56
691.59,-1.57
692.09,-1.57
692.59,-1.57
693.09,-1.57
693.59,-1.57
694.09,-1.58
694.59,-1.58
695.09,-1.58
695.59,-1.58
696.09,-1.58
696.59,-1.59
697.09,-1.59
697.59,-1.59
698.09,-1.59
698.59,-1.60
699.09,-1.60
699.59,-1.60
700.09,-1.60
700.59,-1.60
701.09,-1.61
701.59,-1.61
702.09,-1.61
702.59,-1.61
703.09,-1.62
703.59,-1.62
704.09,-1.62
704.59,-1.62
705.09,-1.62
705.59,-1.63
706.09,-1.63
706.59,-1.63
707.09,-1.63
707.59,-1.64
708.09,-1.64
708.59,-1.64
709.09,-1.64
709.59,-1.64
710.09,-1.65
710.59,-1.65
711.09,-1.65
711.59,-1.65
712.09,-1.66
712.59,-1.66
713.09,-1.66
713.59,-1.66
714.09,-1.66
714.59,-1.67
715.09,-1.67
715.59,-1.67
716.09,-1.67
716.59,-1.68
717.09,-1.68
717.59,-1.68
718.09,-1.68
718.59,-1.68
719.09,-1.69
719.59,-1.69
720.09,-1.69
720.59,-1.69
721.09,-1.70
721.59,-1.70
722.09,-1.70
722.59,-1.70
723.09,-1.71
723.59,-1.71
724.09,-1.71
724.59,-1.71
725.09,-1.71
725.59,-1.72
726.09,-1.72
726.59,-1.72
727.09,-1.72
727.59,-1.73
728.09,-1.73
728.59,-1.73
729.09,-1.73
729.59,-1.73
730.09,-1.74
730.59,-1.74
731.09,-1.74
731.59,-1.74
732.09,-1.75
732.59,-1.75
733.09,-1.75
733.59,-1.75
734.09,-1.76
734.59,-1.76
735.09,-1.76
735.59,-1.76
736.09,-1.76
736.59,-1.77
737.09,-1.77
737.59,-1.77
738.09,-1.77
738.59,-1.78
739.09,-1.78
739.59,-1.78
740.09,-1.78
740.59,-1.78
741.09,-1.79
741.59,-1.79
742.09,-1.79
742.59,-1.79
743.09,-1.80
743.59,-1.80
744.09,-1.80
744.59,-1.80
745.09,-1.81
745.59,-1.81
746.09,-1.81
746.59,-1.81
747.09,-1.82
747.59,-1.82
748.09,-1.82
748.59,-1.82
749.09,-1.82
749.59,-1.83
750.09,-1.83
750.59,-1.83
751.09,-1.83
751.59,-1.84
752.09,-1.84
752.59,-1.84
753.09,-1.84
753.59,-1.85
754.09,-1.85
754.59,-1.85
755.09,-1.85
755.59,-1.85
756.09,-1.86
756.59,-1.86
757.09,-1.86
757.59,-1.86
758.09,-1.87
758.59,-1.87
759.09,-1.87
759.59,-1.87
760.10,-1.88
760.60,-1.88
761.10,-1.88
761.60,-1.88
762.10,-1.89
762.60,-1.89
763.10,-1.89
763.60,-1.89
764.10,-1.89
764.60,-1.90
765.10,-1.90
765.60,-1.90
766.10,-1.90
766.60,-1.91
767.10,-1.91
767.60,-1.91
768.10,-1.91
768.60,-1.92
769.10,-1.92
769.60,-1.92
770.10,-1.92
770.60,-1.93
771.10,-1.93
771.60,-1.93
772.10,-1.93
772.60,-1.94
773.10,-1.94
773.60,-1.94
774.10,-1.94
774.60,-1.94
775.10,-1.95
775.60,-1.95
776.10,-1.95
